# Grace project file
#
@version 50125
@page size 792, 612
@page scroll 5%
@page inout 5%
@link page off
@map font 13 to "ZapfDingbats", "ZapfDingbats"
@map font 4 to "Helvetica", "Helvetica"
@map font 6 to "Helvetica-Bold", "Helvetica-Bold"
@map font 5 to "Helvetica-Oblique", "Helvetica-Oblique"
@map font 7 to "Helvetica-BoldOblique", "Helvetica-BoldOblique"
@map font 17 to "Nimbus-Sans-L-Regular-Condensed", "Nimbus-Sans-L-Regular-Condensed"
@map font 18 to "Nimbus-Sans-L-Bold-Condensed", "Nimbus-Sans-L-Bold-Condensed"
@map font 19 to "Nimbus-Sans-L-Regular-Condensed-Italic", "Nimbus-Sans-L-Regular-Condensed-Italic"
@map font 20 to "Nimbus-Sans-L-Bold-Condensed-Italic", "Nimbus-Sans-L-Bold-Condensed-Italic"
@map font 0 to "Times-Roman", "Times-Roman"
@map font 2 to "Times-Bold", "Times-Bold"
@map font 1 to "Times-Italic", "Times-Italic"
@map font 3 to "Times-BoldItalic", "Times-BoldItalic"
@map font 8 to "Courier", "Courier"
@map font 10 to "Courier-Bold", "Courier-Bold"
@map font 9 to "Courier-Oblique", "Courier-Oblique"
@map font 11 to "Courier-BoldOblique", "Courier-BoldOblique"
@map font 29 to "URW-Palladio-L-Roman", "URW-Palladio-L-Roman"
@map font 30 to "URW-Palladio-L-Bold", "URW-Palladio-L-Bold"
@map font 31 to "URW-Palladio-L-Italic", "URW-Palladio-L-Italic"
@map font 32 to "URW-Palladio-L-Bold-Italic", "URW-Palladio-L-Bold-Italic"
@map font 12 to "Symbol", "Symbol"
@map font 34 to "URW-Chancery-L-Medium-Italic", "URW-Chancery-L-Medium-Italic"
@map color 0 to (255, 255, 255), "white"
@map color 1 to (0, 0, 0), "black"
@map color 2 to (255, 0, 0), "red"
@map color 3 to (0, 255, 0), "green"
@map color 4 to (0, 0, 255), "blue"
@map color 5 to (255, 255, 0), "yellow"
@map color 6 to (188, 143, 143), "brown"
@map color 7 to (220, 220, 220), "grey"
@map color 8 to (148, 0, 211), "violet"
@map color 9 to (0, 255, 255), "cyan"
@map color 10 to (255, 0, 255), "magenta"
@map color 11 to (255, 165, 0), "orange"
@map color 12 to (114, 33, 188), "indigo"
@map color 13 to (103, 7, 72), "maroon"
@map color 14 to (64, 224, 208), "turquoise"
@map color 15 to (0, 139, 0), "green4"
@reference date 0
@date wrap off
@date wrap year 1950
@default linewidth 1.0
@default linestyle 1
@default color 1
@default pattern 1
@default font 0
@default char size 1.000000
@default symbol size 1.000000
@default sformat "%.8g"
@background color 0
@page background fill on
@timestamp off
@timestamp 0.03, 0.03
@timestamp color 1
@timestamp rot 0
@timestamp font 0
@timestamp char size 1.000000
@timestamp def "Mon May 27 16:48:38 2024"
@r0 off
@link r0 to g0
@r0 type above
@r0 linestyle 1
@r0 linewidth 1.0
@r0 color 1
@r0 line 0, 0, 0, 0
@r1 off
@link r1 to g0
@r1 type above
@r1 linestyle 1
@r1 linewidth 1.0
@r1 color 1
@r1 line 0, 0, 0, 0
@r2 off
@link r2 to g0
@r2 type above
@r2 linestyle 1
@r2 linewidth 1.0
@r2 color 1
@r2 line 0, 0, 0, 0
@r3 off
@link r3 to g0
@r3 type above
@r3 linestyle 1
@r3 linewidth 1.0
@r3 color 1
@r3 line 0, 0, 0, 0
@r4 off
@link r4 to g0
@r4 type above
@r4 linestyle 1
@r4 linewidth 1.0
@r4 color 1
@r4 line 0, 0, 0, 0
@g0 on
@g0 hidden false
@g0 type XY
@g0 stacked false
@g0 bar hgap 0.000000
@g0 fixedpoint off
@g0 fixedpoint type 0
@g0 fixedpoint xy 0.000000, 0.000000
@g0 fixedpoint format general general
@g0 fixedpoint prec 6, 6
@with g0
@    world 30, -0.001, 90, 4000
@    stack world 0, 0, 0, 0
@    znorm 1
@    view 0.150000, 0.150000, 1.150000, 0.850000
@    title "N-C Termini Constant Velocity SMD"
@    title font 0
@    title size 1.500000
@    title color 1
@    subtitle "Ubiquitin Without Water (2fs/step, 0.001A/step)"
@    subtitle font 0
@    subtitle size 1.000000
@    subtitle color 1
@    xaxes scale Normal
@    yaxes scale Normal
@    xaxes invert off
@    yaxes invert off
@    xaxis  on
@    xaxis  type zero false
@    xaxis  offset 0.000000 , 0.000000
@    xaxis  bar on
@    xaxis  bar color 1
@    xaxis  bar linestyle 1
@    xaxis  bar linewidth 1.0
@    xaxis  label "N-C Seperation (A)"
@    xaxis  label layout para
@    xaxis  label place auto
@    xaxis  label char size 1.000000
@    xaxis  label font 0
@    xaxis  label color 1
@    xaxis  label place normal
@    xaxis  tick on
@    xaxis  tick major 10
@    xaxis  tick minor ticks 1
@    xaxis  tick default 6
@    xaxis  tick place rounded true
@    xaxis  tick in
@    xaxis  tick major size 1.000000
@    xaxis  tick major color 1
@    xaxis  tick major linewidth 1.0
@    xaxis  tick major linestyle 1
@    xaxis  tick major grid off
@    xaxis  tick minor color 1
@    xaxis  tick minor linewidth 1.0
@    xaxis  tick minor linestyle 1
@    xaxis  tick minor grid off
@    xaxis  tick minor size 0.500000
@    xaxis  ticklabel on
@    xaxis  ticklabel format general
@    xaxis  ticklabel prec 5
@    xaxis  ticklabel formula ""
@    xaxis  ticklabel append ""
@    xaxis  ticklabel prepend ""
@    xaxis  ticklabel angle 0
@    xaxis  ticklabel skip 0
@    xaxis  ticklabel stagger 0
@    xaxis  ticklabel place normal
@    xaxis  ticklabel offset auto
@    xaxis  ticklabel offset 0.000000 , 0.010000
@    xaxis  ticklabel start type auto
@    xaxis  ticklabel start 0.000000
@    xaxis  ticklabel stop type auto
@    xaxis  ticklabel stop 0.000000
@    xaxis  ticklabel char size 1.000000
@    xaxis  ticklabel font 0
@    xaxis  ticklabel color 1
@    xaxis  tick place both
@    xaxis  tick spec type none
@    yaxis  on
@    yaxis  type zero false
@    yaxis  offset 0.000000 , 0.000000
@    yaxis  bar on
@    yaxis  bar color 1
@    yaxis  bar linestyle 1
@    yaxis  bar linewidth 1.0
@    yaxis  label "Force on C-Terminal (pN)"
@    yaxis  label layout para
@    yaxis  label place auto
@    yaxis  label char size 1.000000
@    yaxis  label font 0
@    yaxis  label color 1
@    yaxis  label place normal
@    yaxis  tick on
@    yaxis  tick major 1000
@    yaxis  tick minor ticks 1
@    yaxis  tick default 6
@    yaxis  tick place rounded true
@    yaxis  tick in
@    yaxis  tick major size 1.000000
@    yaxis  tick major color 1
@    yaxis  tick major linewidth 1.0
@    yaxis  tick major linestyle 1
@    yaxis  tick major grid off
@    yaxis  tick minor color 1
@    yaxis  tick minor linewidth 1.0
@    yaxis  tick minor linestyle 1
@    yaxis  tick minor grid off
@    yaxis  tick minor size 0.500000
@    yaxis  ticklabel on
@    yaxis  ticklabel format general
@    yaxis  ticklabel prec 5
@    yaxis  ticklabel formula ""
@    yaxis  ticklabel append ""
@    yaxis  ticklabel prepend ""
@    yaxis  ticklabel angle 0
@    yaxis  ticklabel skip 0
@    yaxis  ticklabel stagger 0
@    yaxis  ticklabel place normal
@    yaxis  ticklabel offset auto
@    yaxis  ticklabel offset 0.000000 , 0.010000
@    yaxis  ticklabel start type auto
@    yaxis  ticklabel start 0.000000
@    yaxis  ticklabel stop type auto
@    yaxis  ticklabel stop 0.000000
@    yaxis  ticklabel char size 1.000000
@    yaxis  ticklabel font 0
@    yaxis  ticklabel color 1
@    yaxis  tick place both
@    yaxis  tick spec type none
@    altxaxis  off
@    altyaxis  off
@    legend on
@    legend loctype view
@    legend 0.85, 0.8
@    legend box color 1
@    legend box pattern 1
@    legend box linewidth 1.0
@    legend box linestyle 1
@    legend box fill color 0
@    legend box fill pattern 1
@    legend font 0
@    legend char size 1.000000
@    legend color 1
@    legend length 4
@    legend vgap 1
@    legend hgap 1
@    legend invert false
@    frame type 0
@    frame linestyle 1
@    frame linewidth 1.0
@    frame color 1
@    frame pattern 1
@    frame background color 0
@    frame background pattern 0
@    s0 hidden false
@    s0 type xy
@    s0 symbol 0
@    s0 symbol size 1.000000
@    s0 symbol color 1
@    s0 symbol pattern 1
@    s0 symbol fill color 1
@    s0 symbol fill pattern 0
@    s0 symbol linewidth 1.0
@    s0 symbol linestyle 1
@    s0 symbol char 65
@    s0 symbol char font 0
@    s0 symbol skip 0
@    s0 line type 1
@    s0 line linestyle 1
@    s0 line linewidth 1.0
@    s0 line color 1
@    s0 line pattern 1
@    s0 baseline type 0
@    s0 baseline off
@    s0 dropline off
@    s0 fill type 0
@    s0 fill rule 0
@    s0 fill color 1
@    s0 fill pattern 1
@    s0 avalue off
@    s0 avalue type 2
@    s0 avalue char size 1.000000
@    s0 avalue font 0
@    s0 avalue color 1
@    s0 avalue rot 0
@    s0 avalue format general
@    s0 avalue prec 3
@    s0 avalue prepend ""
@    s0 avalue append ""
@    s0 avalue offset 0.000000 , 0.000000
@    s0 errorbar on
@    s0 errorbar place both
@    s0 errorbar color 1
@    s0 errorbar pattern 1
@    s0 errorbar size 1.000000
@    s0 errorbar linewidth 1.0
@    s0 errorbar linestyle 1
@    s0 errorbar riser linewidth 1.0
@    s0 errorbar riser linestyle 1
@    s0 errorbar riser clip off
@    s0 errorbar riser clip length 0.100000
@    s0 comment "Cols 4:2"
@    s0 legend  ""
@target G0.S0
@type xy
37.333362 -0.00090767279
37.243458 46.577199
37.263067 46.465808
37.181945 91.346896
37.157212 105.70658
37.176687 105.1438
37.066172 161.3362
37.175775 122.66907
37.077832 175.55815
37.140279 154.55573
37.052634 201.88509
37.024938 221.8585
37.046756 212.37214
36.942236 261.01553
37.017823 227.25084
36.796597 330.29826
36.756703 355.13572
36.686686 392.58297
36.728065 372.55118
36.799407 342.85706
36.785749 350.70416
36.909515 296.34358
36.96412 279.26712
36.964238 287.55537
37.034254 270.96133
36.983535 305.44716
37.131302 240.66105
37.141993 240.72204
37.203202 211.92745
37.280271 177.33509
37.137823 253.16233
37.171864 248.03271
37.092982 294.66816
37.13932 283.54441
37.148588 280.11263
37.191681 263.25096
37.27218 241.82836
37.390319 194.7311
37.541064 137.72342
37.638777 108.16786
37.806022 31.12025
37.837043 25.461892
37.888165 14.661569
37.837766 55.134978
37.784897 98.053825
37.79346 104.97878
37.802993 119.58037
37.841975 112.38884
37.808512 137.11336
37.769435 169.39616
37.674687 227.00025
37.573115 285.12073
37.514251 319.91634
37.399223 390.65349
37.34069 425.16405
37.243949 480.58497
37.067861 586.61975
37.020282 613.647
36.962542 655.91569
36.897597 691.06818
36.820059 730.93014
36.527985 883.12346
36.425888 935.38305
36.389029 967.74258
36.376834 987.76989
36.467763 956.52838
36.361179 1014.4366
36.31578 1047.2839
36.23193 1095.1939
36.192145 1115.579
36.225764 1111.2232
36.16102 1147.5966
36.24776 1112.9209
36.239251 1117.1531
36.250094 1109.8535
36.381785 1045.7894
36.362102 1039.5103
36.528093 951.81121
36.499029 967.02053
36.543248 938.48011
36.615934 896.4399
36.597617 903.41463
36.705446 849.63213
36.643327 883.50519
36.607804 911.40124
36.585716 935.62861
36.533103 969.61147
36.589156 951.80876
36.64958 932.9206
36.745362 897.57539
36.879399 850.12973
36.896892 855.67339
37.050258 791.12999
37.19815 729.49665
37.404586 636.8092
37.652375 523.97329
37.728308 492.67079
37.94925 393.0757
37.98968 380.04789
38.11421 326.87894
38.212659 283.17901
38.286712 251.25822
38.325787 236.15882
38.407352 203.1355
38.417515 212.18773
38.469476 200.08017
38.477569 209.44776
38.369534 274.9453
38.300754 315.95536
38.122306 417.98974
38.103158 441.23853
38.034513 494.67018
38.01614 518.87194
37.919346 576.19385
37.827782 633.76215
37.807735 643.41965
37.944086 576.83661
38.038415 534.08654
38.093616 502.38075
38.114127 494.44049
38.061676 525.75763
38.126942 512.36799
38.157226 511.94967
38.284853 451.47133
38.332682 443.51275
38.372915 435.26145
38.371254 441.24706
38.351689 457.32681
38.4586 416.91929
38.578177 361.5618
38.655202 324.33913
38.796499 262.34808
38.824605 256.99843
38.876403 236.36908
38.841631 259.36065
38.848104 264.50694
38.905929 230.33651
39.007098 185.04051
39.079208 157.91303
39.069478 167.0264
39.119597 158.91399
39.207295 132.73067
39.139207 171.59602
39.081377 201.62212
38.932266 254.40862
38.881181 266.63731
38.952895 229.54322
38.84755 273.70134
38.900442 259.36809
38.78705 311.68272
38.735562 336.67055
38.764201 335.479
38.742823 342.24335
38.785769 326.82386
38.753417 343.62957
38.747024 342.7422
38.709588 367.32176
38.731439 352.43383
38.788762 326.25197
38.724466 346.67937
38.602469 389.39404
38.511076 425.25797
38.488326 418.96627
38.403019 449.09058
38.291529 493.6583
38.138244 556.86418
38.122853 561.53905
38.1874 528.44285
38.320059 466.34689
38.50366 382.71894
38.461484 407.4122
38.470563 407.10481
38.516158 390.25591
38.543163 375.29008
38.62404 333.14477
38.652913 324.06784
38.637028 336.08028
38.77954 267.63106
38.84891 231.42758
38.936732 192.7059
39.202072 71.123455
39.163678 95.10595
39.323576 31.326037
39.320362 41.485768
39.328842 38.014059
39.36452 27.580369
39.215472 99.923979
39.273072 79.365994
39.202318 129.51914
39.229824 118.57172
39.159585 161.49012
39.08443 193.33749
39.10584 175.55209
39.058989 195.74052
39.038242 194.5181
39.044655 193.8424
38.914556 257.86373
38.812282 300.3303
38.698692 360.24053
38.624625 390.69457
38.535885 429.23687
38.459457 468.04379
38.552947 417.40309
38.445965 475.20148
38.555498 421.93525
38.547345 434.41179
38.615424 405.53149
38.796997 322.12341
38.759817 353.31704
39.000892 251.2583
38.859069 332.41865
38.89207 327.76115
38.937285 321.96453
38.875732 354.96719
38.985775 305.76022
39.101683 261.68528
39.163412 239.0526
39.315201 175.52868
39.270251 210.52228
39.348121 175.11304
39.362614 170.44461
39.448532 130.36488
39.406487 150.62673
39.308796 200.32673
39.291186 206.94138
39.061449 316.63105
39.145377 279.83772
39.034822 336.0008
38.996316 351.68098
38.880425 409.44247
38.774957 458.73429
38.691039 496.51063
38.565827 553.03531
38.50491 581.65051
38.402999 632.21116
38.384182 638.59192
38.374955 642.71553
38.398662 630.65653
38.447784 608.54971
38.431064 620.65466
38.399669 640.19572
38.422846 637.03036
38.519645 597.58678
38.540155 600.92453
38.700036 532.08554
38.600452 592.18133
38.840654 490.06851
39.00049 422.54385
39.061661 396.86432
39.296828 293.73951
39.192907 352.7708
39.349851 284.24355
39.34108 299.4384
39.319652 308.95369
39.456685 251.96334
39.348673 311.21721
39.330346 321.62852
39.179955 394.56285
39.189828 388.60164
39.222637 377.42121
39.318247 333.44911
39.387672 307.38942
39.441473 289.13543
39.514999 260.26772
39.620177 215.26878
39.664507 197.39396
39.672053 209.06897
39.615963 245.68151
39.584711 268.34853
39.516232 313.78969
39.513353 317.27415
39.488332 337.6823
39.494774 334.8959
39.565765 298.52176
39.601259 290.72189
39.728655 232.43375
39.691172 250.09187
39.701414 242.87548
39.668736 255.66043
39.637916 271.89646
39.734689 228.72431
39.704996 250.91493
39.724029 248.55966
39.607142 307.97594
39.513774 354.31541
39.539748 345.7641
39.461878 384.56587
39.490145 378.21927
39.481624 394.71899
39.524617 380.75614
39.586116 355.07698
39.586381 360.48038
39.601687 359.18837
39.617276 364.88941
39.616552 368.50442
39.494005 427.33056
39.49272 427.91354
39.334996 499.59024
39.212585 560.95402
39.197035 571.23683
39.175353 585.0517
39.201167 579.05595
39.146255 610.35966
39.031177 667.66653
39.053816 664.2495
39.03691 675.94263
39.122069 635.90624
39.199707 606.81904
39.255036 587.81583
39.325671 559.88806
39.307442 580.80857
39.387945 554.4554
39.386547 571.31
39.389302 580.55408
39.40212 584.74149
39.336251 625.08031
39.387998 600.49074
39.378203 614.01859
39.607317 514.73005
39.555987 541.82151
39.492961 578.06562
39.618518 524.75022
39.515384 574.32251
39.716947 481.87574
39.769975 463.20143
39.706284 499.96586
39.678755 519.03699
39.516276 601.3648
39.502346 622.69104
39.423557 671.30962
39.26105 758.65094
39.170807 811.11179
39.067795 866.56602
39.12204 844.26364
39.091541 856.73897
39.081653 863.7316
39.099353 861.0248
39.047975 889.91362
39.061965 893.02897
39.150647 858.28994
39.281324 803.93177
39.493915 712.98435
39.656999 645.71219
39.720058 627.70867
39.804776 596.57772
39.839854 593.32573
39.878435 590.19208
39.931862 574.48513
39.902095 595.57031
39.894964 602.35436
39.835713 641.67519
39.84379 645.08285
39.815397 669.12603
39.782087 699.82846
39.812892 691.08281
39.721815 742.71635
39.764647 729.45396
39.744656 756.79387
39.739506 785.23548
39.832548 759.40591
39.689688 847.62419
39.83085 804.54524
39.856681 800.22243
39.789954 845.41582
39.791949 858.00739
39.663875 926.40406
39.589448 973.65052
39.46034 1040.3925
39.544562 1003.4451
39.702589 917.16485
39.651721 940.07135
39.790779 879.23118
39.805726 873.45985
39.770421 901.24043
39.718334 940.68932
39.607007 994.92796
39.659771 974.85758
39.5321 1037.38
39.415914 1085.494
39.462966 1053.8232
39.458696 1050.4054
39.593022 983.84184
39.597087 987.91298
39.636966 983.00597
39.58325 1027.6115
39.56776 1043.9587
39.498413 1075.1901
39.394189 1127.842
39.434138 1115.3846
39.438245 1123.0171
39.632158 1048.1832
39.564037 1091.0715
39.639104 1046.6924
39.738954 989.84651
39.725451 1000.2883
39.795657 966.06719
39.724263 1003.9972
39.744993 1004.2318
39.844928 977.59039
39.670806 1064.1455
39.740092 1024.6388
39.751395 1016.7396
39.738939 1003.348
39.772166 962.80872
39.643151 1020.1587
39.688085 988.91596
39.655747 1012.1477
39.708739 989.95264
39.757784 969.29394
39.842365 925.00838
39.710168 982.45386
39.55789 1050.4383
39.470944 1085.7526
39.400408 1129.3926
39.517532 1084.8387
39.630507 1046.2452
39.604275 1076.1926
39.714827 1036.545
39.786703 1001.3425
39.778768 1008.4643
39.943435 939.95508
39.901331 971.30759
39.882336 978.55632
39.827649 1012.5794
39.750143 1056.38
39.68948 1100.9359
39.653761 1130.4744
39.634901 1145.9488
39.667741 1126.0077
39.766243 1063.6666
39.693422 1098.9788
39.827005 1036.9547
39.824152 1048.4361
39.77298 1073.8416
39.634167 1128.5523
39.587648 1142.5919
39.454787 1199.8228
39.620263 1125.5015
39.553309 1168.9411
39.482551 1203.6114
39.525044 1189.5782
39.512184 1194.9467
39.697402 1109.8129
39.83598 1053.4179
39.803937 1071.7987
39.737928 1108.553
39.703366 1117.8511
39.597409 1178.0225
39.772731 1105.8682
39.810514 1105.0799
39.830615 1099.1975
39.804594 1119.3606
39.782503 1126.141
39.778049 1128.7328
39.87283 1092.0492
40.032965 1028.314
40.183253 973.01141
40.32251 918.83819
40.334004 918.87196
40.405717 884.78217
40.257373 959.32949
40.254105 951.50953
40.259229 957.9387
40.425674 889.04443
40.514283 855.69169
40.555488 842.26714
40.583014 825.33363
40.449772 885.48102
40.364399 920.67338
40.370967 926.27598
40.51531 865.23782
40.543986 856.23443
40.556287 845.65162
40.374378 926.14387
40.270721 970.15176
40.215973 997.81933
40.227507 997.82788
40.344652 942.61432
40.410402 919.10083
40.569825 847.68883
40.50899 870.14362
40.370577 929.35193
40.354865 937.63938
40.264756 980.80006
40.39598 927.6847
40.585703 847.91526
40.600945 840.52345
40.584009 841.00886
40.538409 866.0615
40.574592 852.19011
40.692718 805.08066
40.695764 808.96441
40.702044 805.61447
40.625564 845.23491
40.619688 848.09335
40.626406 846.20046
40.784039 775.14455
40.862227 744.11325
40.888659 739.28385
40.82566 774.17536
40.744436 815.56876
40.771784 807.91105
40.860073 774.403
40.885871 770.20949
40.907587 765.90621
41.028647 708.77291
41.065695 696.54438
41.183396 646.41105
41.202201 646.78385
41.296686 615.71227
41.298264 619.47039
41.246592 651.33148
41.269162 648.15024
41.214695 686.91493
41.254567 676.774
41.25159 683.19706
41.264802 680.32032
41.338758 651.7498
41.240242 701.74414
41.246981 699.89881
41.248515 700.01303
41.282464 683.87436
41.420513 623.03212
41.346487 667.36327
41.354315 664.78331
41.239819 726.1105
41.241988 734.20811
41.203723 754.7729
41.165332 789.38469
41.259044 758.30375
41.157098 818.3544
41.141893 824.76931
41.114286 842.36146
41.071111 856.03972
41.136263 828.4518
41.355459 736.1697
41.493857 669.98018
41.609743 617.14492
41.623698 601.82178
41.539704 641.85892
41.624063 601.08265
41.577463 627.44032
41.740376 558.48385
41.739899 556.23118
41.778615 537.16738
41.879549 487.78207
41.803673 522.41377
41.728272 557.85169
41.649692 598.9926
41.545709 651.26317
41.48908 672.10279
41.429466 700.7237
41.374471 731.4802
41.389492 722.76017
41.236593 805.18555
41.38754 736.40268
41.294737 791.1178
41.28115 797.40302
41.22934 833.73977
41.008478 948.5808
40.961575 975.52062
40.823946 1041.2357
40.825739 1043.9185
